File: packages/dara-xrd/dara_xrd-1.1.1-py3-none-any.whl/dara/data/BGMN-Templates/Devices/RMS-D8-ADS-15-Glass-LynxEyeXE-bkgr.xy
4.000000 965
4.257270 877
4.514540 865
4.771810 714
5.029080 717
5.286350 662
5.543620 630
5.800890 599
6.058160 546
6.315430 548
6.572700 592
6.829970 558
7.087240 578
7.344510 543
7.601780 500
7.859050 531
8.116320 512
8.373590 534
8.630860 568
8.888130 577
9.145400 567
9.402671 523
9.659941 545
9.917211 549
10.1745 556
10.4318 559
10.689 542
10.9463 558
11.2036 571
11.4608 572
11.7181 583
11.9754 604
12.2326 593
12.4899 634
12.7472 627
13.0045 628
13.2617 608
13.519 694
13.7763 635
14.0335 661
14.2908 672
14.5481 690
14.8053 698
15.0626 620
15.3199 678
15.5772 734
15.8344 719
16.0917 695
16.349 758
16.6062 832
16.8635 821
17.1208 799
17.378 881
17.6353 896
17.8926 913
18.1499 952
18.4071 991
18.6644 964
18.9217 998
19.1789 1008
19.4362 1070
19.6935 1084
19.9507 1135
20.208 1185
20.4653 1131
20.7226 1182
20.9798 1248
21.2371 1211
21.4944 1301
21.7516 1344
22.0089 1347
22.2662 1425
22.5234 1494
22.7807 1495
23.038 1458
23.2953 1450
23.5525 1493
23.8098 1482
24.0671 1537
24.3243 1530
24.5816 1530
24.8389 1616
25.0961 1494
25.3534 1570
25.6107 1472
25.868 1542
26.1252 1523
26.3825 1533
26.6398 1639
26.897 1588
27.1543 1486
27.4116 1548
27.6688 1470
27.9261 1506
28.1834 1573
28.4407 1494
28.6979 1493
28.9552 1523
29.2125 1445
29.4697 1414
29.727 1429
29.9843 1360
30.2415 1423
30.4988 1335
30.7561 1283
31.0134 1263
31.2706 1343
31.5279 1201
31.7852 1277
32.0424 1293
32.2997 1162
32.557 1176
32.8142 1178
33.0715 1114
33.3288 1200
33.5861 1162
33.8433 1088
34.1006 1098
34.3579 1140
34.6151 1092
34.8724 1084
35.1297 1121
35.3869 1067
35.6442 1025
35.9015 996
36.1588 995
36.416 969
36.6733 943
36.9306 1009
37.1878 966
37.4451 965
37.7024 933
37.9596 990
38.2169 877
38.4742 896
38.7315 922
38.9887 866
39.246 889
39.5033 866
39.7605 862
40.0178 865
40.2751 836
40.5323 838
40.7896 889
41.0469 902
41.3042 891
41.5614 887
41.8187 954
42.076 860
42.3332 891
42.5905 931
42.8478 900
43.105 859
43.3623 871
43.6196 925
43.8769 896
44.1341 901
44.3914 950
44.6487 896
44.9059 981
45.1632 894
45.4205 905
45.6777 929
45.935 856
46.1923 924
46.4496 883
46.7068 874
46.9641 888
47.2214 860
47.4786 891
47.7359 896
47.9932 905
48.2504 925
48.5077 941
48.765 871
49.0223 896
49.2795 937
49.5368 895
49.7941 922
50.0513 923
50.3086 891
50.5659 909
50.8231 817
51.0804 860
51.3377 899
51.595 883
51.8522 843
52.1095 891
52.3668 944
52.624 929
52.8813 888
53.1386 912
53.3958 871
53.6531 935
53.9104 890
54.1677 907
54.4249 965
54.6822 901
54.9395 925
55.1967 930
55.454 959
55.7113 895
55.9685 980
56.2258 981
56.4831 959
56.7404 914
56.9976 965
57.2549 912
57.5122 961
57.7694 976
58.0267 981
58.284 1001
58.5412 1010
58.7985 934
59.0558 972
59.3131 944
59.5703 964
59.8276 995
60.0849 1019
60.3421 983
60.5994 986
60.8567 976
61.1139 1013
61.3712 1011
61.6285 982
61.8858 985
62.143 959
62.4003 969
62.6576 967
62.9148 1003
63.1721 1030
63.4294 1029
63.6866 1005
63.9439 971
64.2012 972
64.4585 1006
64.7157 1006
64.973 987
65.2303 1002
65.4875 999
65.7448 1032
66.0021 967
66.2593 1007
66.5166 933
66.7739 986
67.0312 950
67.2884 1009
67.5457 974
67.803 994
68.0602 993
68.3175 985
68.5748 985
68.832 987
69.0893 1017
69.3466 892
69.6039 937
69.8611 943
70.1184 944
70.3757 910
70.6329 982
70.8902 968
71.1475 978
71.4047 969
71.662 974
71.9193 907
72.1766 888
72.4338 922
72.6911 920
72.9484 907
73.2056 936
73.4629 914
73.7202 918
73.9774 924
74.2347 928
74.492 958
74.7493 894
75.0065 887
75.2638 892
75.5211 925
75.7783 896
76.0356 882
76.2929 918
76.5501 922
76.8074 911
77.0647 866
77.322 846
77.5792 897
77.8365 889
78.0938 869
78.351 839
78.6083 892
78.8656 876
79.1228 911
79.3801 839
79.6374 837
79.8947 837
80.0172 882