File: packages/dara-xrd/dara_xrd-1.1.1-py3-none-any.whl/dara/data/BGMN-Templates/Devices/xpert-xcel-htk-ads-10.xy
7.28831 0.0917536
7.2986 0.0991418
7.30889 0.10728
7.31917 0.116261
7.32946 0.12619
7.33974 0.137187
7.35003 0.149391
7.36031 0.162964
7.3706 0.178088
7.38088 0.19498
7.39117 0.213886
7.40146 0.235098
7.41174 0.258953
7.42203 0.285847
7.43231 0.316245
7.4426 0.350695
7.45288 0.389845
7.46317 0.434461
7.47346 0.485454
7.48374 0.543912
7.49403 0.611133
7.50431 0.688677
7.5146 0.778417
7.52488 0.882614
7.53517 1.004
7.54545 1.14589
7.55574 1.31232
7.56603 1.50821
7.57632 1.73948
7.5866 2.01339
7.59689 2.33873
7.60718 2.72616
7.61747 3.18856
7.62776 3.7413
7.63805 4.40256
7.64833 5.1935
7.65862 6.13811
7.66891 7.26263
7.6792 8.59423
7.68949 10.1585
7.69977 11.9759
7.71006 14.0563
7.72035 16.393
7.73064 18.9576
7.74093 21.6985
7.75121 24.5481
7.7615 27.4432
7.77179 30.3613
7.78208 33.369
7.79237 36.6714
7.80265 40.638
7.81294 45.7706
7.82323 52.5588
7.83352 61.1829
7.84381 71.1464
7.8541 81.2625
7.86438 90.6416
7.87467 100.472
7.88496 114.387
7.89525 134.555
7.90554 156.189
7.91582 175.655
7.92611 206.088
7.9364 246.852
7.94669 288.241
7.95698 355.784
7.96726 456.919
7.97755 633.631
7.98784 914.746
7.99813 921.38
8.00842 382.261
8.0187 52.3164
8.02899 14.4815
8.03928 7.10487
8.04957 4.42151
8.05986 3.09381
8.07015 2.31494
8.08043 1.80774
8.09072 1.45382
8.10101 1.19464
8.1113 0.997974
8.12159 0.844665
8.13187 0.722594
8.14216 0.623721
8.15245 0.542502
8.16274 0.474991
8.17303 0.418305
8.18331 0.370292
8.1936 0.329312
8.20389 0.294098
8.21418 0.263655
8.22447 0.237192
8.23475 0.214077
8.24504 0.193793
8.25533 0.17592
8.26562 0.160112
8.27591 0.146081
8.2862 0.133585
8.29648 0.122422
8.30677 0.112422
8.31706 0.103439
8.32735 0.0953487
12.6614 0.199037
12.6714 0.233456
12.6814 0.275524
12.6914 0.327336
12.7015 0.391669
12.7115 0.472241
12.7215 0.574084
12.7315 0.704078
12.7416 0.871731
12.7516 1.09032
12.7616 1.37859
12.7717 1.76324
12.7817 2.28266
12.7917 2.99224
12.8017 3.97173
12.8118 5.33523
12.8218 7.24211
12.8318 9.90422
12.8419 13.5769
12.8519 18.5089
12.8619 24.8266
12.872 32.3793
12.882 40.752
12.892 49.8491
12.902 61.1686
12.9121 78.5407
12.9221 105.096
12.9321 136.51
12.9422 172.028
12.9522 235.294
12.9622 315.22
12.9722 471.453
12.9823 722.882
12.9923 993.568
13.0023 749.517
13.0124 178.226
13.0224 25.6261
13.0324 9.11474
13.0425 4.74339
13.0525 2.92152
13.0625 1.97221
13.0725 1.41009
13.0826 1.0489
13.0926 0.803342
13.1026 0.629358
13.1127 0.502115
13.1227 0.406684
13.1327 0.333622
13.1427 0.276715
13.1528 0.231736
19.7919 0.302296
19.8017 0.398289
19.8116 0.534679
19.8214 0.732961
19.8312 1.02853
19.8411 1.48111
19.8509 2.19375
19.8608 3.34658
19.8706 5.2531
19.8805 8.43424
19.8903 13.642
19.9002 21.6019
19.91 32.3122
19.9199 45.4422
19.9297 64.9861
19.9395 98.6427
19.9494 141.509
19.9592 217.793
19.9691 343.904
19.9789 578.326
19.9888 902.49
19.9986 919.641
20.0084 366.727
20.0183 41.4278
20.0281 9.57589
20.038 3.86724
20.0478 1.99964
20.0577 1.18311
29.8573 0.418426
29.8671 0.609862
29.8769 0.921803
29.8866 1.4543
29.8964 2.41289
29.9062 4.24272
29.9159 7.94614
29.9257 15.7545
29.9355 31.8738
29.9453 60.48
29.955 104.934
29.9648 205.948
29.9746 396.385
29.9843 702.048
29.9941 999.545
30.0039 652.774
30.0136 96.7565
30.0234 13.0057
30.0332 4.50403
30.0429 2.15017
30.0527 1.19771
41.8951 0.538046
41.9046 0.885113
41.9141 1.55648
41.9236 2.97782
41.9331 6.33705
41.9426 15.3249
41.9521 41.7361
41.9617 112.774
41.9712 262.736
41.9807 527.493
41.9902 906.543
41.9997 880.822
42.0092 278.545
42.0187 19.3583
42.0282 4.95945
42.0378 2.06421
42.0473 1.05157
55.9226 1.10966
55.9321 2.36504
55.9416 5.92911
55.9511 18.4615
55.9606 69.7463
55.9701 209.468
55.9797 455.287
55.9892 839.943
55.9987 919.377
56.0082 306.374
56.0177 15.3239
56.0272 3.34797
75.9355 1.91178
75.9451 5.51239
75.9546 22.021
75.9642 102.47
75.9737 276.052
75.9833 568.202
75.9929 982.777
76.0024 718.812
76.012 89.759
76.0215 6.96749
89.938 2.11265
89.9476 6.37798
89.9572 27.625
89.9668 129.969
89.9764 321.403
89.9859 651.569
89.9955 996.218
90.0051 533.744
90.0147 36.2642
90.0243 4.77609
104.943 2.95417
104.953 10.2693
104.962 53.1447
104.972 197.404
104.981 449.37
104.991 895.545
105.001 845.019
105.01 202.2
105.02 13.1757
119.948 3.07114
119.957 12.4195
119.967 79.6099
119.976 268.42
119.986 608.783
119.996 999.929
120.005 599.832
120.015 68.6345
120.024 8.23383
134.956 4.71001
134.965 23.8856
134.975 161.32
134.985 477.4
134.994 962.295
135.004 748.992
135.013 154.48
135.023 21.4584
135.033 5.17863
135.042 1.81051
149.961 4.04649
149.971 21.8118
149.98 188.89
149.99 672.381
149.999 981.435
150.009 490.638
150.018 107.431
150.028 23.7222
150.037 5.88301
150.047 2.04815
150.056 0.895152
150.058 0.797348